P-V-T Data for 13% Fe-bearing Bridgmanite
ID P[GPa] err_tot T[K] err V_Pv[Ang^3] err V_Ne[Ang^3] err
1  33.15 0.65  300   0 146.59 0.24 34.707 0.058
1  33.88 0.58  300   0 145.81 0.21 34.524 0.058
1  37.95 0.84  300   0 144.97 0.30 33.580 0.057
1  39.50 0.86  300   0 144.32 0.30 33.252 0.056
1  41.91 0.42  300   0 142.88 0.11 32.771 0.055
1  44.58 0.68  300   0 142.23 0.21 32.273 0.054
1  46.85 0.73  300   0 141.49 0.22 31.877 0.054
1  49.21 0.92  300   0 140.53 0.28 31.488 0.053
1  51.39 0.73  300   0 139.52 0.20 31.146 0.052
1  55.20 1.39  300   0 138.53 0.41 30.591 0.051
1  56.22 0.90  300   0 138.40 0.25 30.449 0.051
1  59.22 1.03  300   0 137.40 0.28 30.051 0.051
1  61.07 1.19  300   0 137.14 0.33 29.817 0.050
1  63.17 0.82  300   0 136.23 0.20 29.560 0.050
1  64.21 0.88  300   0 136.06 0.22 29.437 0.049
1  66.38 0.81  300   0 135.48 0.19 29.187 0.049
1  67.88 0.80  300   0 135.01 0.18 29.020 0.049
1  70.84 1.02  300   0 134.08 0.24 28.702 0.048
1  73.92 1.11  300   0 133.38 0.26 28.388 0.048
1  73.39 0.94  300   0 133.72 0.21 28.441 0.048
1  74.57 0.79  300   0 133.07 0.16 28.325 0.048
1  74.95 0.96  300   0 133.17 0.21 28.287 0.048
1  76.94 0.94  300   0 132.38 0.20 28.095 0.047
1  79.58 1.17  300   0 131.90 0.26 27.849 0.047
1  81.59 1.01  300   0 131.26 0.21 27.668 0.047
1  85.09 1.04  300   0 130.65 0.21 27.365 0.046
1  86.34 0.97  300   0 130.44 0.19 27.261 0.046
1  86.64 1.35  300   0 130.22 0.29 27.236 0.046
1  87.62 0.98  300   0 130.39 0.19 27.156 0.046
1  88.87 1.07  300   0 129.88 0.21 27.054 0.045
1  90.14 1.38  300   0 129.25 0.28 26.953 0.045
1  92.68 1.00  300   0 128.59 0.18 26.756 0.045
1  93.20 1.11  300   0 128.68 0.21 26.717 0.045
1  95.41 1.17  300   0 128.33 0.22 26.551 0.045
1  96.95 0.99  300   0 127.91 0.17 26.439 0.044
1  98.72 1.54  300   0 127.56 0.30 26.312 0.044
1 103.54 1.61  300   0 125.99 0.30 25.980 0.044
1 104.68 1.12  300   0 126.31 0.19 25.904 0.044
1 106.09 1.26  300   0 126.37 0.22 25.811 0.043
1 109.67 2.10  300   0 125.12 0.39 25.582 0.043
1 111.20 1.31  300   0 124.55 0.22 25.487 0.043
1 111.03 0.96  300   0 125.39 0.13 25.498 0.043
1 112.88 1.33  300   0 124.61 0.22 25.385 0.043
1 114.60 2.02  300   0 123.89 0.36 25.282 0.043
1 108.59 1.97  300   0 124.91 0.36 25.651 0.043
1 113.88 1.79  300   0 124.96 0.32 25.325 0.043
1 116.98 1.78  300   0 124.19 0.31 25.142 0.042
1 120.09 2.08  300   0 122.42 0.35 24.964 0.042
1 117.19 1.30  300   0 124.52 0.21 25.130 0.042
2  43.88 1.27 1700 100 146.35 0.48 34.435 0.086
2  44.32 1.32 1755 100 146.38 0.50 34.423 0.086
2  49.71 1.85 1652 100 142.58 0.63 33.088 0.083
2  48.88 1.84 1720 100 142.49 0.62 33.354 0.084
2  50.43 1.73 1790 100 142.63 0.58 33.141 0.083
2  49.40 1.58 1750 100 142.64 0.53 33.291 0.084
2  49.46 1.61 1665 100 142.69 0.54 33.155 0.083
2  50.83 1.28 1750 100 143.50 0.43 33.004 0.083
2  54.21 0.77 1924 100 142.52 0.22 32.599 0.082
2  61.32 1.40 1652 100 140.14 0.42 31.093 0.078
2  62.38 1.51 1780 100 140.21 0.46 31.074 0.078
2  64.86 2.39 1875 100 139.70 0.74 30.815 0.077
2  62.20 1.37 1916 100 139.20 0.40 31.251 0.078
2  63.78 1.46 2065 100 139.24 0.43 31.176 0.078
2  71.07 1.65 1845 100 136.88 0.45 29.955 0.075
2  71.16 1.71 1922 100 136.93 0.47 30.015 0.075
2  71.66 1.50 2000 100 136.90 0.40 30.025 0.075
2  71.51 1.56 2085 100 137.29 0.42 30.124 0.076
2  71.73 1.34 1862 100 136.63 0.34 29.888 0.075
2  72.18 1.36 1972 100 136.60 0.35 29.934 0.075
2  72.95 1.33 2015 100 136.68 0.34 29.878 0.075
2  84.76 1.61 2155 100 133.71 0.38 28.668 0.072
2  83.17 1.67 1940 100 133.63 0.39 28.664 0.072
2  84.01 1.29 1945 100 133.80 0.28 28.582 0.072
2  84.64 1.28 1975 100 133.79 0.28 28.542 0.072
2  85.84 1.24 2125 100 133.92 0.27 28.535 0.072
2  87.81 1.24 2375 100 133.96 0.27 28.527 0.072
2  84.19 1.28 1840 100 133.81 0.28 28.484 0.072
2  83.70 1.23 1755 100 133.86 0.26 28.469 0.072
2  84.00 1.31 1780 100 133.91 0.29 28.458 0.072
2  83.53 0.96 1715 100 133.56 0.17 28.456 0.072
2  84.12 1.36 1740 100 133.71 0.30 28.416 0.071
2  84.12 1.57 1735 100 133.75 0.37 28.412 0.071
2  84.59 1.32 1800 100 133.84 0.29 28.414 0.071
2  85.02 1.35 1900 100 133.82 0.30 28.447 0.072
2  85.91 1.36 2008 100 133.89 0.30 28.439 0.071
2  95.37 1.74 1685 100 130.59 0.36 27.356 0.069
2  94.28 1.92 1548 100 130.63 0.41 27.359 0.069
2  95.61 1.57 1678 100 130.74 0.32 27.332 0.069
2  94.38 1.65 1635 100 130.21 0.34 27.407 0.069
2  95.31 1.68 1792 100 130.25 0.34 27.430 0.069
2  95.55 1.58 1846 100 130.36 0.32 27.445 0.069
2  95.85 1.94 1895 100 130.24 0.41 27.451 0.069
2  96.14 2.01 1935 100 130.47 0.43 27.453 0.069
2  96.70 1.79 2030 100 130.69 0.38 27.467 0.069
2 103.11 1.45 1825 100 128.73 0.26 26.824 0.067
2 102.52 1.53 1750 100 128.70 0.28 26.825 0.067
2 102.30 1.36 1765 100 128.99 0.23 26.850 0.067
2 102.47 1.59 1805 100 128.92 0.30 26.861 0.068
2 102.34 1.60 1810 100 128.90 0.30 26.874 0.068
2 102.51 1.76 1850 100 128.95 0.34 26.885 0.068
2 102.65 1.47 1890 100 128.94 0.27 26.898 0.068
2 102.88 1.44 1932 100 128.93 0.26 26.905 0.068
2 113.71 2.28 1835 100 126.27 0.42 26.068 0.066
2 112.72 1.26 1695 100 126.34 0.16 26.061 0.066
2 113.24 1.78 1738 100 126.52 0.31 26.049 0.065
2 112.47 1.70 1655 100 126.56 0.29 26.057 0.065
2 112.70 2.17 1610 100 126.45 0.40 26.018 0.065
2 112.83 1.75 1640 100 126.53 0.30 26.025 0.065
2 113.35 1.69 1715 100 126.56 0.29 26.029 0.065
2 113.67 1.74 1758 100 126.56 0.30 26.030 0.065
2 112.90 1.49 1600 100 126.26 0.23 25.999 0.065
2 113.51 1.81 1685 100 126.47 0.32 26.003 0.065
2 114.61 1.49 1832 100 126.45 0.23 26.006 0.065
2 114.66 1.44 1852 100 126.54 0.22 26.014 0.065
2 114.91 1.86 1878 100 126.54 0.33 26.011 0.065
2 114.66 2.30 1825 100 126.34 0.43 26.000 0.065
2 118.63 1.69 2275 100 126.58 0.28 25.970 0.065
2 117.69 1.77 2095 100 126.61 0.31 25.939 0.065
2 123.71 2.03 2141 100 124.77 0.34 25.578 0.064
2 120.30 1.39 1990 100 125.39 0.19 25.717 0.065
2 119.76 1.44 1920 100 125.40 0.20 25.716 0.065
2 119.65 1.38 1890 100 125.40 0.19 25.708 0.065
2 120.48 1.40 2020 100 125.42 0.19 25.720 0.065
2 121.20 1.41 2175 100 125.41 0.20 25.752 0.065
2 121.55 1.39 2228 100 125.42 0.19 25.756 0.065
2 121.48 1.39 2240 100 125.40 0.19 25.767 0.065
2 126.59 2.37 2045 100 124.05 0.40 25.356 0.064
2 126.34 2.58 2025 100 124.42 0.45 25.361 0.064
2 125.71 2.58 1970 100 123.98 0.45 25.373 0.064
2 121.37 1.98 1740 100 124.96 0.33 25.526 0.064
2 122.26 2.14 1895 100 124.55 0.36 25.547 0.064
2 122.61 2.33 1975 100 124.33 0.40 25.564 0.064
2 123.11 1.65 2060 100 124.94 0.25 25.575 0.064
2 123.63 1.77 2145 100 125.14 0.28 25.584 0.064
2 123.63 2.43 2155 100 125.23 0.44 25.589 0.064
2 123.96 1.75 2225 100 125.22 0.28 25.603 0.064
2 124.14 2.86 2262 100 124.54 0.52 25.610 0.064
2 123.80 2.19 2240 100 124.55 0.37 25.621 0.064
2 126.03 2.30 2340 100 124.82 0.40 25.532 0.064
2 122.33 2.62 1944 140 124.52 0.47 25.567 0.064
2 121.06 2.29 1815 100 124.63 0.40 25.582 0.064
2 120.89 4.20 1840 100 124.19 0.78 25.605 0.064
2 128.72 1.78 1865 100 122.98 0.26 25.147 0.063
2 129.18 2.21 1895 100 124.32 0.37 25.135 0.063
2 130.08 3.36 1995 100 124.89 0.62 25.129 0.063
2 130.73 2.54 1980 100 124.90 0.45 25.084 0.063
2 127.35 1.46 2180 100 124.60 0.19 25.375 0.064
2 127.72 1.69 2268 100 124.68 0.26 25.394 0.064
2 128.35 1.79 2368 100 124.69 0.28 25.404 0.064
2 128.62 1.71 2415 100 124.70 0.26 25.410 0.064
2 128.67 1.79 2455 100 124.56 0.28 25.426 0.064
2 132.27 2.58 1995 100 124.81 0.45 25.004 0.063
2 132.70 3.76 2062 100 124.59 0.70 25.010 0.063
